
#Here is the LBQS composite spectrum, taken from
#Francis et al. (1991) ApJ 373, 465. The first
#column is the rest-frame wavelength in Angstroms,
#the second the flux in energy per unit wavelength.

#You are welcome to use this data in any way
#you like, though please acknowlege its source!

#Paul Francis

#nb. No attempt was made to remove absorption from
#the individual spectra before co-addition (though BALQSOs
#were removed from the sample). On average this makes 
#little difference - the sample is large enough to average the
#absorption out. However, associated absorption near the
#peak of Ly-alpha is enough to lower its equivalent
#width significantly in the composite.


   800.0000      0.8778315
   802.5000      0.9120747
   805.0000      0.6071863
   807.5000      0.4995252
   810.0000      0.6396102
   812.5000      0.6545966
   815.0000      0.5835355
   817.5000      0.8092773
   820.0000      0.7093036
   822.5000      0.7418095
   825.0000      0.7148849
   827.5000      0.5294613
   830.0000      0.4087479
   832.5000      0.3060298
   835.0000      0.6596816
   837.5000      0.8656101
   840.0000      0.7855011
   842.5000      0.9126173
   845.0000      0.9420581
   847.5000       1.014574
   850.0000      0.8181470
   852.5000      0.9562206
   855.0000       1.240843
   857.5000       1.086691
   860.0000      0.9683338
   862.5000       1.002634
   865.0000       1.216059
   867.5000       1.051032
   870.0000       1.262604
   872.5000       1.355684
   875.0000       1.430773
   877.5000       1.547074
   880.0000       1.606675
   882.5000       1.514375
   885.0000       1.677873
   887.5000       1.520999
   890.0000       1.498857
   892.5000       1.470563
   895.0000       1.668100
   897.5000       1.620695
   900.0000       1.765081
   902.5000       2.047283
   905.0000       2.060088
   907.5000       2.079311
   910.0000       2.280979
   912.5000       2.240971
   915.0000       2.460501
   917.5000       2.605949
   920.0000       2.444905
   922.5000       2.595989
   925.0000       2.695604
   927.5000       2.616528
   930.0000       2.695803
   932.5000       2.996540
   935.0000       2.993635
   937.5000       2.540556
   940.0000       3.152762
   942.5000       3.183073
   945.0000       3.217386
   947.5000       3.096202
   950.0000       3.387102
   952.5000       3.336559
   955.0000       3.209876
   957.5000       3.166862
   960.0000       2.887212
   962.5000       3.188136
   965.0000       2.931162
   967.5000       3.108038
   970.0000       3.132957
   972.5000       3.375390
   975.0000       3.561688
   977.5000       3.722327
   980.0000       3.556715
   982.5000       3.573391
   985.0000       3.536865
   987.5000       3.590084
   990.0000       3.715581
   992.5000       3.671348
   995.0000       3.624805
   997.5000       3.554011
   1000.000       3.422108
   1002.500       3.499042
   1005.000       3.631175
   1007.500       3.618515
   1010.000       3.763944
   1012.500       3.504183
   1015.000       3.614904
   1017.500       3.646142
   1020.000       3.448768
   1022.500       3.717016
   1025.000       3.747879
   1027.500       4.317084
   1030.000       4.457333
   1032.500       4.702432
   1035.000       4.835813
   1037.500       4.679083
   1040.000       4.420286
   1042.500       4.275189
   1045.000       3.901164
   1047.500       3.798218
   1050.000       3.760669
   1052.500       3.469979
   1055.000       3.465771
   1057.500       3.524174
   1060.000       3.756171
   1062.500       3.744006
   1065.000       3.462804
   1067.500       3.532288
   1070.000       3.450333
   1072.500       3.363664
   1075.000       3.458445
   1077.500       3.497821
   1080.000       3.558266
   1082.500       3.693443
   1085.000       3.712460
   1087.500       3.623302
   1090.000       3.609780
   1092.500       3.570000
   1095.000       3.416039
   1097.500       3.395758
   1100.000       3.245918
   1102.500       3.349026
   1105.000       3.237492
   1107.500       3.400038
   1110.000       3.334976
   1112.500       3.328557
   1115.000       3.372773
   1117.500       3.573289
   1120.000       3.627361
   1122.500       3.629818
   1125.000       3.611116
   1127.500       3.594983
   1130.000       3.584852
   1132.500       3.598033
   1135.000       3.436081
   1137.500       3.525971
   1140.000       3.444042
   1142.500       3.428255
   1145.000       3.370903
   1147.500       3.162243
   1150.000       3.133912
   1152.500       3.253545
   1155.000       3.332858
   1157.500       3.527226
   1160.000       3.459350
   1162.500       3.467232
   1165.000       3.666861
   1167.500       3.693075
   1170.000       3.666508
   1172.500       3.870107
   1175.000       3.844283
   1177.500       3.977914
   1180.000       3.964085
   1182.500       4.129086
   1185.000       4.144233
   1187.500       4.342583
   1190.000       4.510104
   1192.500       4.784302
   1195.000       4.874970
   1197.500       5.203969
   1200.000       5.430116
   1202.500       5.882025
   1205.000       6.368980
   1207.500       6.990024
   1210.000       7.843137
   1212.500       8.497060
   1215.000       9.091032
   1217.500       9.717818
   1220.000       9.425836
   1222.500       8.890214
   1225.000       7.667515
   1227.500       7.638235
   1230.000       7.338923
   1232.500       7.504928
   1235.000       7.501543
   1237.500       7.544841
   1240.000       7.483409
   1242.500       7.272558
   1245.000       6.749980
   1247.500       6.330717
   1250.000       5.907094
   1252.500       5.568252
   1255.000       5.281852
   1257.500       5.089100
   1260.000       5.026525
   1262.500       4.955883
   1265.000       4.851150
   1267.500       4.745571
   1270.000       4.605153
   1272.500       4.510860
   1275.000       4.277409
   1277.500       4.164057
   1280.000       4.123919
   1282.500       4.038373
   1285.000       3.954057
   1287.500       3.938138
   1290.000       3.972026
   1292.500       3.992244
   1295.000       4.081935
   1297.500       4.068928
   1300.000       4.096859
   1302.500       4.139040
   1305.000       4.279501
   1307.500       4.246494
   1310.000       4.213589
   1312.500       4.155079
   1315.000       4.098592
   1317.500       3.940384
   1320.000       3.900517
   1322.500       3.826311
   1325.000       3.797475
   1327.500       3.814797
   1330.000       3.914078
   1332.500       3.956104
   1335.000       4.000909
   1337.500       4.024494
   1340.000       4.013085
   1342.500       3.940488
   1345.000       3.951740
   1347.500       3.876422
   1350.000       3.843254
   1352.500       3.820518
   1355.000       3.786304
   1357.500       3.842924
   1360.000       3.822358
   1362.500       3.796796
   1365.000       3.790980
   1367.500       3.836019
   1370.000       3.881177
   1372.500       3.926317
   1375.000       3.902348
   1377.500       3.938017
   1380.000       4.015194
   1382.500       4.062375
   1385.000       4.172033
   1387.500       4.233698
   1390.000       4.362364
   1392.500       4.414073
   1395.000       4.499578
   1397.500       4.571897
   1400.000       4.572629
   1402.500       4.508256
   1405.000       4.463612
   1407.500       4.323616
   1410.000       4.170081
   1412.500       4.081151
   1415.000       3.971166
   1417.500       3.862544
   1420.000       3.809038
   1422.500       3.716392
   1425.000       3.707452
   1427.500       3.663624
   1430.000       3.626563
   1432.500       3.610090
   1435.000       3.574507
   1437.500       3.576792
   1440.000       3.520421
   1442.500       3.513714
   1445.000       3.483710
   1447.500       3.493261
   1450.000       3.465178
   1452.500       3.490755
   1455.000       3.481013
   1457.500       3.486210
   1460.000       3.478707
   1462.500       3.468273
   1465.000       3.482093
   1467.500       3.455658
   1470.000       3.458600
   1472.500       3.473649
   1475.000       3.467793
   1477.500       3.440985
   1480.000       3.467256
   1482.500       3.509257
   1485.000       3.526460
   1487.500       3.541540
   1490.000       3.592563
   1492.500       3.563093
   1495.000       3.595821
   1497.500       3.665385
   1500.000       3.685225
   1502.500       3.676033
   1505.000       3.725127
   1507.500       3.759482
   1510.000       3.773375
   1512.500       3.855825
   1515.000       3.884649
   1517.500       4.003341
   1520.000       4.030600
   1522.500       4.181903
   1525.000       4.255521
   1527.500       4.402561
   1530.000       4.531719
   1532.500       4.678531
   1535.000       4.818652
   1537.500       5.085311
   1540.000       5.380119
   1542.500       5.658080
   1545.000       5.770969
   1547.500       5.920780
   1550.000       5.842740
   1552.500       5.579437
   1555.000       5.310297
   1557.500       4.990384
   1560.000       4.679628
   1562.500       4.429619
   1565.000       4.265220
   1567.500       4.100201
   1570.000       3.996171
   1572.500       3.886835
   1575.000       3.813100
   1577.500       3.729963
   1580.000       3.693233
   1582.500       3.632638
   1585.000       3.616305
   1587.500       3.593695
   1590.000       3.577521
   1592.500       3.552304
   1595.000       3.516341
   1597.500       3.519501
   1600.000       3.505271
   1602.500       3.515647
   1605.000       3.522627
   1607.500       3.491226
   1610.000       3.487101
   1612.500       3.499441
   1615.000       3.491887
   1617.500       3.492405
   1620.000       3.498100
   1622.500       3.513726
   1625.000       3.516161
   1627.500       3.506542
   1630.000       3.507136
   1632.500       3.523037
   1635.000       3.510442
   1637.500       3.503578
   1640.000       3.508507
   1642.500       3.436769
   1645.000       3.373681
   1647.500       3.337388
   1650.000       3.345477
   1652.500       3.323953
   1655.000       3.333588
   1657.500       3.309443
   1660.000       3.334584
   1662.500       3.374009
   1665.000       3.317036
   1667.500       3.318431
   1670.000       3.291467
   1672.500       3.237724
   1675.000       3.205142
   1677.500       3.175765
   1680.000       3.107654
   1682.500       3.092752
   1685.000       3.061806
   1687.500       3.046044
   1690.000       3.049642
   1692.500       3.043608
   1695.000       3.025386
   1697.500       3.023745
   1700.000       3.011905
   1702.500       3.052711
   1705.000       3.021506
   1707.500       3.061759
   1710.000       3.043150
   1712.500       3.079584
   1715.000       3.041377
   1717.500       3.070188
   1720.000       3.051773
   1722.500       3.063582
   1725.000       3.045284
   1727.500       3.061383
   1730.000       3.055521
   1732.500       3.032804
   1735.000       3.018449
   1737.500       3.013467
   1740.000       3.013103
   1742.500       3.038907
   1745.000       3.029411
   1747.500       3.043561
   1750.000       3.034869
   1752.500       3.040451
   1755.000       2.974782
   1757.500       2.960500
   1760.000       2.952694
   1762.500       2.937502
   1765.000       2.927481
   1767.500       2.902621
   1770.000       2.889167
   1772.500       2.888644
   1775.000       2.899295
   1777.500       2.891891
   1780.000       2.857247
   1782.500       2.871389
   1785.000       2.871938
   1787.500       2.900773
   1790.000       2.877667
   1792.500       2.869066
   1795.000       2.873215
   1797.500       2.827346
   1800.000       2.793559
   1802.500       2.813613
   1805.000       2.807018
   1807.500       2.791765
   1810.000       2.774791
   1812.500       2.796524
   1815.000       2.813767
   1817.500       2.798912
   1820.000       2.789080
   1822.500       2.778177
   1825.000       2.784343
   1827.500       2.778543
   1830.000       2.752896
   1832.500       2.755083
   1835.000       2.798716
   1837.500       2.781712
   1840.000       2.822892
   1842.500       2.846023
   1845.000       2.869804
   1847.500       2.911044
   1850.000       2.941443
   1852.500       2.956749
   1855.000       2.980058
   1857.500       2.997792
   1860.000       3.016204
   1862.500       3.007499
   1865.000       2.996532
   1867.500       3.001281
   1870.000       2.984094
   1872.500       2.983959
   1875.000       3.010822
   1877.500       3.004306
   1880.000       3.064898
   1882.500       3.113131
   1885.000       3.192725
   1887.500       3.252050
   1890.000       3.339034
   1892.500       3.393967
   1895.000       3.440513
   1897.500       3.493063
   1900.000       3.522390
   1902.500       3.548833
   1905.000       3.644262
   1907.500       3.677126
   1910.000       3.624004
   1912.500       3.542475
   1915.000       3.441294
   1917.500       3.341859
   1920.000       3.195144
   1922.500       3.113123
   1925.000       3.061957
   1927.500       2.956796
   1930.000       2.897805
   1932.500       2.863067
   1935.000       2.792767
   1937.500       2.738483
   1940.000       2.686331
   1942.500       2.661144
   1945.000       2.622546
   1947.500       2.599059
   1950.000       2.587622
   1952.500       2.579128
   1955.000       2.568358
   1957.500       2.569689
   1960.000       2.539399
   1962.500       2.493783
   1965.000       2.465684
   1967.500       2.452772
   1970.000       2.440989
   1972.500       2.421883
   1975.000       2.445977
   1977.500       2.424190
   1980.000       2.431513
   1982.500       2.405412
   1985.000       2.401193
   1987.500       2.421694
   1990.000       2.419083
   1992.500       2.434756
   1995.000       2.424007
   1997.500       2.409731
   2000.000       2.418609
   2002.500       2.401682
   2005.000       2.388918
   2007.500       2.385798
   2010.000       2.382508
   2012.500       2.360802
   2015.000       2.346375
   2017.500       2.337741
   2020.000       2.334581
   2022.500       2.340716
   2025.000       2.344599
   2027.500       2.322644
   2030.000       2.338768
   2032.500       2.324977
   2035.000       2.299412
   2037.500       2.299698
   2040.000       2.326188
   2042.500       2.328787
   2045.000       2.323535
   2047.500       2.319416
   2050.000       2.325248
   2052.500       2.305398
   2055.000       2.333380
   2057.500       2.346683
   2060.000       2.369149
   2062.500       2.371568
   2065.000       2.384760
   2067.500       2.369683
   2070.000       2.383907
   2072.500       2.386330
   2075.000       2.361675
   2077.500       2.341978
   2080.000       2.348171
   2082.500       2.331809
   2085.000       2.315669
   2087.500       2.296460
   2090.000       2.273135
   2092.500       2.279072
   2095.000       2.263448
   2097.500       2.258086
   2100.000       2.254408
   2102.500       2.258690
   2105.000       2.257844
   2107.500       2.227325
   2110.000       2.216047
   2112.500       2.209404
   2115.000       2.188217
   2117.500       2.177925
   2120.000       2.119871
   2122.500       2.110866
   2125.000       2.081026
   2127.500       2.098703
   2130.000       2.095726
   2132.500       2.092922
   2135.000       2.098462
   2137.500       2.106808
   2140.000       2.095719
   2142.500       2.090228
   2145.000       2.064118
   2147.500       2.057788
   2150.000       2.049134
   2152.500       2.029190
   2155.000       2.030979
   2157.500       2.003886
   2160.000       2.002659
   2162.500       2.004947
   2165.000       2.020187
   2167.500       2.009036
   2170.000       2.028873
   2172.500       2.034961
   2175.000       2.007577
   2177.500       2.026673
   2180.000       2.018926
   2182.500       2.001140
   2185.000       1.997463
   2187.500       1.977118
   2190.000       1.973858
   2192.500       1.954842
   2195.000       1.942611
   2197.500       1.917253
   2200.000       1.915493
   2202.500       1.909487
   2205.000       1.909478
   2207.500       1.896058
   2210.000       1.914104
   2212.500       1.918529
   2215.000       1.928373
   2217.500       1.938225
   2220.000       1.931766
   2222.500       1.912902
   2225.000       1.930358
   2227.500       1.924447
   2230.000       1.902271
   2232.500       1.884190
   2235.000       1.870730
   2237.500       1.865797
   2240.000       1.878181
   2242.500       1.860000
   2245.000       1.860956
   2247.500       1.872104
   2250.000       1.884003
   2252.500       1.906436
   2255.000       1.869188
   2257.500       1.890456
   2260.000       1.892024
   2262.500       1.880146
   2265.000       1.896348
   2267.500       1.893540
   2270.000       1.884692
   2272.500       1.890436
   2275.000       1.889767
   2277.500       1.888078
   2280.000       1.895292
   2282.500       1.906264
   2285.000       1.911561
   2287.500       1.920072
   2290.000       1.935985
   2292.500       1.935176
   2295.000       1.913182
   2297.500       1.930223
   2300.000       1.943859
   2302.500       1.964554
   2305.000       1.950298
   2307.500       1.961590
   2310.000       1.961464
   2312.500       1.951352
   2315.000       1.965674
   2317.500       1.960012
   2320.000       1.965409
   2322.500       1.974042
   2325.000       1.975823
   2327.500       1.977494
   2330.000       1.981071
   2332.500       1.955016
   2335.000       1.955058
   2337.500       1.948255
   2340.000       1.936422
   2342.500       1.914801
   2345.000       1.899057
   2347.500       1.901534
   2350.000       1.894899
   2352.500       1.867896
   2355.000       1.862211
   2357.500       1.874513
   2360.000       1.878552
   2362.500       1.861260
   2365.000       1.855572
   2367.500       1.855450
   2370.000       1.840032
   2372.500       1.842224
   2375.000       1.841396
   2377.500       1.837668
   2380.000       1.828321
   2382.500       1.826015
   2385.000       1.832046
   2387.500       1.809519
   2390.000       1.829253
   2392.500       1.831599
   2395.000       1.832573
   2397.500       1.846878
   2400.000       1.857941
   2402.500       1.856545
   2405.000       1.825148
   2407.500       1.853427
   2410.000       1.873148
   2412.500       1.886155
   2415.000       1.900357
   2417.500       1.912934
   2420.000       1.933335
   2422.500       1.947766
   2425.000       1.924602
   2427.500       1.888608
   2430.000       1.879824
   2432.500       1.888893
   2435.000       1.863873
   2437.500       1.872932
   2440.000       1.871197
   2442.500       1.846493
   2445.000       1.831983
   2447.500       1.839657
   2450.000       1.804900
   2452.500       1.780209
   2455.000       1.799270
   2457.500       1.797259
   2460.000       1.777775
   2462.500       1.809380
   2465.000       1.799006
   2467.500       1.812129
   2470.000       1.826874
   2472.500       1.822574
   2475.000       1.824698
   2477.500       1.825441
   2480.000       1.808002
   2482.500       1.811964
   2485.000       1.804929
   2487.500       1.822646
   2490.000       1.792388
   2492.500       1.791031
   2495.000       1.807968
   2497.500       1.773911
   2500.000       1.788413
   2502.500       1.777919
   2505.000       1.770523
   2507.500       1.779192
   2510.000       1.769147
   2512.500       1.756953
   2515.000       1.761051
   2517.500       1.756680
   2520.000       1.741961
   2522.500       1.714955
   2525.000       1.722169
   2527.500       1.717178
   2530.000       1.727520
   2532.500       1.723367
   2535.000       1.722093
   2537.500       1.733409
   2540.000       1.717757
   2542.500       1.711740
   2545.000       1.705902
   2547.500       1.692773
   2550.000       1.691038
   2552.500       1.695211
   2555.000       1.684920
   2557.500       1.669636
   2560.000       1.677853
   2562.500       1.670095
   2565.000       1.668914
   2567.500       1.652223
   2570.000       1.654131
   2572.500       1.644664
   2575.000       1.628156
   2577.500       1.641742
   2580.000       1.633940
   2582.500       1.624817
   2585.000       1.637239
   2587.500       1.614306
   2590.000       1.623247
   2592.500       1.583939
   2595.000       1.579588
   2597.500       1.604252
   2600.000       1.602199
   2602.500       1.608598
   2605.000       1.608740
   2607.500       1.590299
   2610.000       1.598270
   2612.500       1.593691
   2615.000       1.586983
   2617.500       1.606475
   2620.000       1.592248
   2622.500       1.591424
   2625.000       1.569859
   2627.500       1.566908
   2630.000       1.573146
   2632.500       1.554912
   2635.000       1.546620
   2637.500       1.533870
   2640.000       1.526029
   2642.500       1.508899
   2645.000       1.479632
   2647.500       1.468045
   2650.000       1.474479
   2652.500       1.477165
   2655.000       1.467872
   2657.500       1.459387
   2660.000       1.455619
   2662.500       1.458738
   2665.000       1.480959
   2667.500       1.484369
   2670.000       1.487140
   2672.500       1.495553
   2675.000       1.485075
   2677.500       1.476668
   2680.000       1.457788
   2682.500       1.466529
   2685.000       1.467153
   2687.500       1.471113
   2690.000       1.468070
   2692.500       1.472718
   2695.000       1.480017
   2697.500       1.478313
   2700.000       1.474994
   2702.500       1.479357
   2705.000       1.494967
   2707.500       1.511635
   2710.000       1.519080
   2712.500       1.531210
   2715.000       1.528769
   2717.500       1.505774
   2720.000       1.508280
   2722.500       1.527097
   2725.000       1.533622
   2727.500       1.553200
   2730.000       1.545357
   2732.500       1.544141
   2735.000       1.544657
   2737.500       1.536583
   2740.000       1.543365
   2742.500       1.569395
   2745.000       1.587789
   2747.500       1.587354
   2750.000       1.613576
   2752.500       1.607943
   2755.000       1.595658
   2757.500       1.609206
   2760.000       1.619897
   2762.500       1.602612
   2765.000       1.587118
   2767.500       1.585225
   2770.000       1.615968
   2772.500       1.626475
   2775.000       1.646864
   2777.500       1.683380
   2780.000       1.743947
   2782.500       1.797628
   2785.000       1.852412
   2787.500       1.924902
   2790.000       2.027894
   2792.500       2.133144
   2795.000       2.202241
   2797.500       2.262810
   2800.000       2.257119
   2802.500       2.218654
   2805.000       2.166668
   2807.500       2.063813
   2810.000       1.959574
   2812.500       1.874996
   2815.000       1.792009
   2817.500       1.717652
   2820.000       1.687449
   2822.500       1.654414
   2825.000       1.630346
   2827.500       1.607099
   2830.000       1.584580
   2832.500       1.571956
   2835.000       1.548462
   2837.500       1.542514
   2840.000       1.523462
   2842.500       1.506455
   2845.000       1.496712
   2847.500       1.495105
   2850.000       1.485423
   2852.500       1.480305
   2855.000       1.463516
   2857.500       1.443571
   2860.000       1.447925
   2862.500       1.419803
   2865.000       1.420148
   2867.500       1.410127
   2870.000       1.399665
   2872.500       1.404827
   2875.000       1.396192
   2877.500       1.381063
   2880.000       1.367368
   2882.500       1.352533
   2885.000       1.369135
   2887.500       1.357774
   2890.000       1.336779
   2892.500       1.326512
   2895.000       1.326417
   2897.500       1.341171
   2900.000       1.323871
   2902.500       1.301338
   2905.000       1.279468
   2907.500       1.296483
   2910.000       1.293660
   2912.500       1.292095
   2915.000       1.289454
   2917.500       1.300230
   2920.000       1.298586
   2922.500       1.314188
   2925.000       1.323925
   2927.500       1.325074
   2930.000       1.330552
   2932.500       1.327049
   2935.000       1.331248
   2937.500       1.325237
   2940.000       1.329021
   2942.500       1.318886
   2945.000       1.334470
   2947.500       1.320042
   2950.000       1.313112
   2952.500       1.313153
   2955.000       1.311513
   2957.500       1.318199
   2960.000       1.321808
   2962.500       1.319270
   2965.000       1.302421
   2967.500       1.305537
   2970.000       1.306187
   2972.500       1.300227
   2975.000       1.286238
   2977.500       1.282094
   2980.000       1.291843
   2982.500       1.285576
   2985.000       1.264957
   2987.500       1.251190
   2990.000       1.250929
   2992.500       1.240105
   2995.000       1.233835
   2997.500       1.216947
   3000.000       1.224096
   3002.500       1.213813
   3005.000       1.197301
   3007.500       1.191016
   3010.000       1.188665
   3012.500       1.179145
   3015.000       1.163106
   3017.500       1.152658
   3020.000       1.146798
   3022.500       1.141640
   3025.000       1.138989
   3027.500       1.149355
   3030.000       1.145643
   3032.500       1.137154
   3035.000       1.130699
   3037.500       1.144480
   3040.000       1.146744
   3042.500       1.147431
   3045.000       1.149534
   3047.500       1.147334
   3050.000       1.147952
   3052.500       1.152839
   3055.000       1.146061
   3057.500       1.140842
   3060.000       1.145698
   3062.500       1.150712
   3065.000       1.162068
   3067.500       1.147470
   3070.000       1.149802
   3072.500       1.147731
   3075.000       1.163127
   3077.500       1.160376
   3080.000       1.155734
   3082.500       1.156095
   3085.000       1.149879
   3087.500       1.148564
   3090.000       1.139239
   3092.500       1.140406
   3095.000       1.148039
   3097.500       1.141790
   3100.000       1.135353
   3102.500       1.147874
   3105.000       1.148036
   3107.500       1.167608
   3110.000       1.166545
   3112.500       1.173290
   3115.000       1.163884
   3117.500       1.187188
   3120.000       1.197517
   3122.500       1.209146
   3125.000       1.205153
   3127.500       1.193395
   3130.000       1.204645
   3132.500       1.198579
   3135.000       1.191866
   3137.500       1.170404
   3140.000       1.192165
   3142.500       1.170064
   3145.000       1.147249
   3147.500       1.160090
   3150.000       1.166136
   3152.500       1.168351
   3155.000       1.154375
   3157.500       1.154547
   3160.000       1.154112
   3162.500       1.152645
   3165.000       1.164300
   3167.500       1.164194
   3170.000       1.182428
   3172.500       1.185325
   3175.000       1.177107
   3177.500       1.178618
   3180.000       1.185781
   3182.500       1.194024
   3185.000       1.186963
   3187.500       1.192907
   3190.000       1.195090
   3192.500       1.186549
   3195.000       1.182410
   3197.500       1.187816
   3200.000       1.188873
   3202.500       1.168339
   3205.000       1.171215
   3207.500       1.178285
   3210.000       1.178442
   3212.500       1.172824
   3215.000       1.169808
   3217.500       1.145115
   3220.000       1.145223
   3222.500       1.124774
   3225.000       1.141335
   3227.500       1.144009
   3230.000       1.146747
   3232.500       1.135005
   3235.000       1.120695
   3237.500       1.115752
   3240.000       1.115863
   3242.500       1.127823
   3245.000       1.114614
   3247.500       1.112131
   3250.000       1.114931
   3252.500       1.118927
   3255.000       1.126851
   3257.500       1.121313
   3260.000       1.117394
   3262.500       1.120907
   3265.000       1.102202
   3267.500       1.093755
   3270.000       1.098585
   3272.500       1.115389
   3275.000       1.111333
   3277.500       1.115457
   3280.000       1.110024
   3282.500       1.105283
   3285.000       1.103003
   3287.500       1.108269
   3290.000       1.120210
   3292.500       1.101393
   3295.000       1.091841
   3297.500       1.083572
   3300.000       1.076419
   3302.500       1.084966
   3305.000       1.064929
   3307.500       1.059651
   3310.000       1.059419
   3312.500       1.056368
   3315.000       1.049730
   3317.500       1.048742
   3320.000       1.029414
   3322.500       1.037166
   3325.000       1.026623
   3327.500       1.034376
   3330.000       1.036407
   3332.500       1.038530
   3335.000       1.040389
   3337.500       1.046764
   3340.000       1.047924
   3342.500       1.057139
   3345.000       1.072636
   3347.500       1.061167
   3350.000       1.040162
   3352.500       1.034378
   3355.000       1.030923
   3357.500       1.025227
   3360.000       1.023022
   3362.500       1.026267
   3365.000       1.016812
   3367.500       1.016777
   3370.000       1.008906
   3372.500       1.009628
   3375.000       1.027959
   3377.500       1.023521
   3380.000       1.022415
   3382.500       1.012481
   3385.000       1.025619
   3387.500       1.024516
   3390.000       1.016286
   3392.500       1.004770
   3395.000       1.019521
   3397.500       1.011936
   3400.000       1.012444
   3402.500       1.023542
   3405.000       1.026693
   3407.500       1.031339
   3410.000       1.027306
   3412.500       1.038348
   3415.000       1.037415
   3417.500       1.053627
   3420.000       1.061671
   3422.500       1.077941
   3425.000       1.097113
   3427.500       1.074530
   3430.000       1.051566
   3432.500       1.037886
   3435.000       1.019267
   3437.500       1.025697
   3440.000       1.027075
   3442.500       1.016115
   3445.000       1.012576
   3447.500       1.005527
   3450.000      0.9829742
   3452.500      0.9801822
   3455.000      0.9938976
   3457.500      0.9923976
   3460.000      0.9912053
   3462.500      0.9951679
   3465.000       1.003507
   3467.500       1.015709
   3470.000      0.9932104
   3472.500       1.000000
   3475.000      0.9862345
   3477.500      0.9555424
   3480.000      0.9743894
   3482.500      0.9854099
   3485.000      0.9880981
   3487.500      0.9845403
   3490.000      0.9815890
   3492.500      0.9861563
   3495.000      0.9663273
   3497.500      0.9843352
   3500.000      0.9884813
   3502.500      0.9653583
   3505.000      0.9668034
   3507.500      0.9645711
   3510.000      0.9512880
   3512.500      0.9516501
   3515.000      0.9518849
   3517.500      0.9471951
   3520.000      0.9380185
   3522.500      0.9333610
   3525.000      0.9248181
   3527.500      0.9247236
   3530.000      0.9113362
   3532.500      0.9122068
   3535.000      0.9221855
   3537.500      0.9166999
   3540.000      0.9165379
   3542.500      0.9130906
   3545.000      0.8956915
   3547.500      0.8910058
   3550.000      0.9019556
   3552.500      0.9083059
   3555.000      0.9099936
   3557.500      0.9086905
   3560.000      0.9128302
   3562.500      0.9093050
   3565.000      0.8981435
   3567.500      0.8972687
   3570.000      0.9104120
   3572.500      0.9166458
   3575.000      0.9256825
   3577.500      0.9150321
   3580.000      0.9102783
   3582.500      0.9115669
   3585.000      0.9290877
   3587.500      0.9033428
   3590.000      0.9026083
   3592.500      0.9042202
   3595.000      0.9006581
   3597.500      0.9001508
   3600.000      0.8891703
   3602.500      0.8933833
   3605.000      0.9001263
   3607.500      0.8964125
   3610.000      0.9050832
   3612.500      0.8864220
   3615.000      0.8850574
   3617.500      0.8989998
   3620.000      0.9025015
   3622.500      0.8958249
   3625.000      0.8870142
   3627.500      0.8951925
   3630.000      0.8844855
   3632.500      0.8733427
   3635.000      0.8925952
   3637.500      0.8812377
   3640.000      0.8705902
   3642.500      0.8777925
   3645.000      0.8794861
   3647.500      0.8721014
   3650.000      0.8739747
   3652.500      0.8688706
   3655.000      0.8743826
   3657.500      0.8809363
   3660.000      0.8763329
   3662.500      0.8740871
   3665.000      0.8682209
   3667.500      0.8622875
   3670.000      0.8626400
   3672.500      0.8585287
   3675.000      0.8589399
   3677.500      0.8569927
   3680.000      0.8530520
   3682.500      0.8577632
   3685.000      0.8521176
   3687.500      0.8370683
   3690.000      0.8498735
   3692.500      0.8583724
   3695.000      0.8528916
   3697.500      0.8593284
   3700.000      0.8510696
   3702.500      0.8558232
   3705.000      0.8530903
   3707.500      0.8422412
   3710.000      0.8404773
   3712.500      0.8366820
   3715.000      0.8388980
   3717.500      0.8528501
   3720.000      0.8624786
   3722.500      0.8882831
   3725.000      0.9369543
   3727.500      0.9804693
   3730.000      0.9670006
   3732.500      0.9037338
   3735.000      0.8485695
   3737.500      0.8383092
   3740.000      0.8294752
   3742.500      0.8341675
   3745.000      0.8330987
   3747.500      0.8169407
   3750.000      0.8237038
   3752.500      0.8307684
   3755.000      0.8416376
   3757.500      0.8403414
   3760.000      0.8185354
   3762.500      0.8232715
   3765.000      0.8069181
   3767.500      0.8121433
   3770.000      0.8160104
   3772.500      0.8040783
   3775.000      0.8085665
   3777.500      0.7998560
   3780.000      0.7978242
   3782.500      0.7941551
   3785.000      0.7879657
   3787.500      0.7951980
   3790.000      0.7828300
   3792.500      0.7662681
   3795.000      0.7519559
   3797.500      0.7548787
   3800.000      0.7638124
   3802.500      0.7512313
   3805.000      0.7493781
   3807.500      0.7593575
   3810.000      0.7718531
   3812.500      0.7720218
   3815.000      0.7672728
   3817.500      0.7674383
   3820.000      0.7617746
   3822.500      0.7566121
   3825.000      0.7554405
   3827.500      0.7541248
   3830.000      0.7478527
   3832.500      0.7617673
   3835.000      0.7645223
   3837.500      0.7519735
   3840.000      0.7486448
   3842.500      0.7620357
   3845.000      0.7573183
   3847.500      0.7589968
   3850.000      0.7643636
   3852.500      0.7732290
   3855.000      0.7700671
   3857.500      0.7838163
   3860.000      0.7918396
   3862.500      0.8070595
   3865.000      0.8290438
   3867.500      0.8678983
   3870.000      0.8572554
   3872.500      0.8243530
   3875.000      0.7902756
   3877.500      0.7797489
   3880.000      0.7551345
   3882.500      0.7551628
   3885.000      0.7795744
   3887.500      0.7747380
   3890.000      0.7800171
   3892.500      0.7671773
   3895.000      0.7469255
   3897.500      0.7404100
   3900.000      0.7333531
   3902.500      0.7467529
   3905.000      0.7359667
   3907.500      0.7298054
   3910.000      0.7290697
   3912.500      0.7212715
   3915.000      0.7237625
   3917.500      0.7236419
   3920.000      0.7128659
   3922.500      0.7069976
   3925.000      0.6998824
   3927.500      0.6883585
   3930.000      0.6815665
   3932.500      0.6845305
   3935.000      0.6775903
   3937.500      0.6838113
   3940.000      0.6935693
   3942.500      0.6941557
   3945.000      0.7054046
   3947.500      0.7096897
   3950.000      0.7071781
   3952.500      0.6967713
   3955.000      0.7129480
   3957.500      0.7114823
   3960.000      0.7213531
   3962.500      0.7215999
   3965.000      0.7182614
   3967.500      0.7202674
   3970.000      0.7144564
   3972.500      0.7099540
   3975.000      0.6961525
   3977.500      0.7006518
   3980.000      0.7012417
   3982.500      0.6935624
   3985.000      0.6967601
   3987.500      0.6918145
   3990.000      0.6714715
   3992.500      0.6841237
   3995.000      0.6827338
   3997.500      0.6696391
   4000.000      0.6673855
   4002.500      0.6600388
   4005.000      0.6672029
   4007.500      0.6583049
   4010.000      0.6541145
   4012.500      0.6637052
   4015.000      0.6613095
   4017.500      0.6759132
   4020.000      0.6707615
   4022.500      0.6577161
   4025.000      0.6625186
   4027.500      0.6547049
   4030.000      0.6448491
   4032.500      0.6469499
   4035.000      0.6463588
   4037.500      0.6396760
   4040.000      0.6443846
   4042.500      0.6359206
   4045.000      0.6309953
   4047.500      0.6335116
   4050.000      0.6520674
   4052.500      0.6420684
   4055.000      0.6352881
   4057.500      0.6506296
   4060.000      0.6480364
   4062.500      0.6467610
   4065.000      0.6543431
   4067.500      0.6742172
   4070.000      0.6824564
   4072.500      0.6781433
   4075.000      0.6738496
   4077.500      0.6696088
   4080.000      0.6701950
   4082.500      0.6764703
   4085.000      0.6909792
   4087.500      0.6903481
   4090.000      0.6923047
   4092.500      0.7104896
   4095.000      0.7138032
   4097.500      0.7070397
   4100.000      0.7463332
   4102.500      0.7413297
   4105.000      0.7241824
   4107.500      0.7081291
   4110.000      0.6974303
   4112.500      0.6982887
   4115.000      0.6987075
   4117.500      0.6775332
   4120.000      0.6744008
   4122.500      0.6665117
   4125.000      0.6603022
   4127.500      0.6589543
   4130.000      0.6537641
   4132.500      0.6576939
   4135.000      0.6466884
   4137.500      0.6401033
   4140.000      0.6336910
   4142.500      0.6221260
   4145.000      0.6190857
   4147.500      0.6014664
   4150.000      0.6094319
   4152.500      0.6204103
   4155.000      0.6078213
   4157.500      0.6201075
   4160.000      0.6252932
   4162.500      0.6097345
   4165.000      0.6204134
   4167.500      0.6151234
   4170.000      0.6134801
   4172.500      0.6202418
   4175.000      0.6241641
   4177.500      0.6142014
   4180.000      0.6094502
   4182.500      0.5969044
   4185.000      0.6015692
   4187.500      0.6095716
   4190.000      0.6085875
   4192.500      0.6031556
   4195.000      0.5994864
   4197.500      0.5874580
   4200.000      0.5777531
   4202.500      0.5736138
   4205.000      0.5893938
   4207.500      0.5982221
   4210.000      0.5866264
   4212.500      0.5937701
   4215.000      0.5915521
   4217.500      0.5906657
   4220.000      0.5931080
   4222.500      0.5998105
   4225.000      0.5921443
   4227.500      0.5830972
   4230.000      0.5887548
   4232.500      0.6031865
   4235.000      0.6108667
   4237.500      0.6080580
   4240.000      0.6050424
   4242.500      0.6147656
   4245.000      0.6138909
   4247.500      0.6021547
   4250.000      0.6050992
   4252.500      0.6016412
   4255.000      0.5936351
   4257.500      0.5877897
   4260.000      0.5847824
   4262.500      0.5994798
   4265.000      0.6050993
   4267.500      0.5981901
   4270.000      0.6036485
   4272.500      0.5995288
   4275.000      0.5963072
   4277.500      0.6111280
   4280.000      0.6155708
   4282.500      0.6157565
   4285.000      0.6034219
   4287.500      0.6029697
   4290.000      0.6140603
   4292.500      0.6378183
   4295.000      0.6345270
   4297.500      0.6460674
   4300.000      0.6293803
   4302.500      0.6242647
   4305.000      0.6407630
   4307.500      0.6404995
   4310.000      0.6464216
   4312.500      0.6491575
   4315.000      0.6634576
   4317.500      0.6776539
   4320.000      0.6956415
   4322.500      0.6839764
   4325.000      0.6966674
   4327.500      0.7055216
   4330.000      0.7172699
   4332.500      0.7592126
   4335.000      0.7633858
   4337.500      0.7710513
   4340.000      0.7838704
   4342.500      0.7956292
   4345.000      0.7859550
   4347.500      0.7676443
   4350.000      0.7408471
   4352.500      0.7391306
   4355.000      0.7307584
   4357.500      0.7398263
   4360.000      0.7291727
   4362.500      0.7075520
   4365.000      0.7042223
   4367.500      0.6816942
   4370.000      0.6759053
   4372.500      0.6712164
   4375.000      0.6341190
   4377.500      0.6201783
   4380.000      0.6274263
   4382.500      0.6215715
   4385.000      0.6058928
   4387.500      0.6073191
   4390.000      0.5992503
   4392.500      0.5979242
   4395.000      0.6110671
   4397.500      0.6050187
   4400.000      0.5970479
   4402.500      0.5907708
   4405.000      0.5907916
   4407.500      0.5842521
   4410.000      0.5899453
   4412.500      0.5852975
   4415.000      0.5755246
   4417.500      0.5892251
   4420.000      0.5795044
   4422.500      0.5535383
   4425.000      0.5777299
   4427.500      0.5625666
   4430.000      0.5441777
   4432.500      0.5606635
   4435.000      0.5586147
   4437.500      0.5629020
   4440.000      0.5571516
   4442.500      0.5588966
   4445.000      0.5670037
   4447.500      0.5658282
   4450.000      0.5566322
   4452.500      0.5544944
   4455.000      0.5539110
   4457.500      0.5654337
   4460.000      0.5721719
   4462.500      0.5700062
   4465.000      0.5756260
   4467.500      0.5858497
   4470.000      0.5928193
   4472.500      0.5785500
   4475.000      0.5833554
   4477.500      0.5870602
   4480.000      0.5798236
   4482.500      0.5689839
   4485.000      0.5629238
   4487.500      0.5730538
   4490.000      0.5857777
   4492.500      0.5852841
   4495.000      0.5862004
   4497.500      0.5791571
   4500.000      0.5875627
   4502.500      0.5860970
   4505.000      0.5842577
   4507.500      0.5800714
   4510.000      0.6004454
   4512.500      0.5989642
   4515.000      0.6133424
   4517.500      0.6236569
   4520.000      0.6093728
   4522.500      0.5991163
   4525.000      0.5932958
   4527.500      0.5797803
   4530.000      0.5801907
   4532.500      0.5842378
   4535.000      0.5672888
   4537.500      0.5776473
   4540.000      0.5736894
   4542.500      0.5794742
   4545.000      0.6112807
   4547.500      0.5749182
   4550.000      0.5942785
   4552.500      0.5800894
   4555.000      0.5826318
   4557.500      0.5945539
   4560.000      0.5989985
   4562.500      0.5970221
   4565.000      0.5956929
   4567.500      0.5784231
   4570.000      0.5619276
   4572.500      0.5654728
   4575.000      0.5859394
   4577.500      0.5862916
   4580.000      0.6007412
   4582.500      0.5903449
   4585.000      0.5776846
   4587.500      0.5770962
   4590.000      0.5675608
   4592.500      0.5825554
   4595.000      0.5754108
   4597.500      0.5724025
   4600.000      0.5598641
   4602.500      0.5547678
   4605.000      0.5469202
   4607.500      0.5664839
   4610.000      0.5486246
   4612.500      0.5574265
   4615.000      0.5625808
   4617.500      0.5724959
   4620.000      0.5768688
   4622.500      0.5784689
   4625.000      0.5777934
   4627.500      0.5652476
   4630.000      0.5701735
   4632.500      0.5613371
   4635.000      0.5773078
   4637.500      0.5529029
   4640.000      0.5632582
   4642.500      0.5502959
   4645.000      0.5679969
   4647.500      0.5568382
   4650.000      0.5520577
   4652.500      0.5572101
   4655.000      0.5741127
   4657.500      0.5604390
   4660.000      0.5464208
   4662.500      0.5481839
   4665.000      0.5619147
   4667.500      0.5470578
   4670.000      0.5419772
   4672.500      0.5402836
   4675.000      0.5443889
   4677.500      0.5484815
   4680.000      0.5463310
   4682.500      0.5527756
   4685.000      0.5616642
   4687.500      0.5381856
   4690.000      0.5210415
   4692.500      0.5295113
   4695.000      0.5238976
   4697.500      0.5113721
   4700.000      0.5203383
   4702.500      0.5090458
   4705.000      0.5137485
   4707.500      0.4945618
   4710.000      0.5035813
   4712.500      0.5067662
   4715.000      0.5163671
   4717.500      0.5125713
   4720.000      0.5146672
   4722.500      0.5032330
   4725.000      0.5093393
   4727.500      0.5169258
   4730.000      0.4971791
   4732.500      0.5056553
   4735.000      0.5061623
   4737.500      0.5181766
   4740.000      0.5112042
   4742.500      0.5152295
   4745.000      0.5012890
   4747.500      0.4906588
   4750.000      0.4848363
   4752.500      0.4758942
   4755.000      0.4864349
   4757.500      0.5014868
   4760.000      0.4882025
   4762.500      0.4863985
   4765.000      0.4873618
   4767.500      0.4857482
   4770.000      0.4959607
   4772.500      0.4938064
   4775.000      0.5030456
   4777.500      0.4962282
   4780.000      0.5127679
   4782.500      0.5042122
   4785.000      0.5108712
   4787.500      0.4932621
   4790.000      0.5071190
   4792.500      0.4927262
   4795.000      0.5157576
   4797.500      0.5131615
   4800.000      0.5264239
   4802.500      0.5378911
   4805.000      0.5239337
   4807.500      0.5351146
   4810.000      0.5303651
   4812.500      0.5402231
   4815.000      0.5519171
   4817.500      0.5700932
   4820.000      0.5890109
   4822.500      0.5809501
   4825.000      0.5916911
   4827.500      0.5908442
   4830.000      0.6380463
   4832.500      0.6387560
   4835.000      0.6387932
   4837.500      0.6446391
   4840.000      0.6597445
   4842.500      0.6844775
   4845.000      0.7081219
   4847.500      0.7434951
   4850.000      0.7371814
   4852.500      0.7757000
   4855.000      0.8324925
   4857.500      0.8733332
   4860.000      0.9089142
   4862.500      0.9118423
   4865.000      0.8767697
   4867.500      0.8468214
   4870.000      0.8170526
   4872.500      0.7834906
   4875.000      0.7561711
   4877.500      0.7330561
   4880.000      0.7154526
   4882.500      0.6879759
   4885.000      0.6811637
   4887.500      0.6382531
   4890.000      0.6310113
   4892.500      0.6207895
   4895.000      0.6190781
   4897.500      0.6102444
   4900.000      0.6139101
   4902.500      0.5945327
   4905.000      0.5918579
   4907.500      0.5607501
   4910.000      0.5517542
   4912.500      0.5685971
   4915.000      0.5717355
   4917.500      0.5595925
   4920.000      0.5476632
   4922.500      0.5609823
   4925.000      0.5406001
   4927.500      0.5326102
   4930.000      0.5303105
   4932.500      0.5352738
   4935.000      0.5134955
   4937.500      0.5192245
   4940.000      0.5097824
   4942.500      0.5127198
   4945.000      0.5253440
   4947.500      0.5208969
   4950.000      0.5195618
   4952.500      0.5689656
   4955.000      0.6187946
   4957.500      0.6802218
   4960.000      0.6838340
   4962.500      0.6329602
   4965.000      0.5609277
   4967.500      0.5324646
   4970.000      0.4951432
   4972.500      0.4992946
   4975.000      0.4862188
   4977.500      0.4697541
   4980.000      0.4794163
   4982.500      0.4890729
   4985.000      0.4639516
   4987.500      0.4807663
   4990.000      0.4971086
   4992.500      0.5322311
   4995.000      0.5478552
   4997.500      0.5789945
   5000.000      0.6713989
   5002.500      0.7803174
   5005.000      0.9535210
   5007.500       1.041959
   5010.000      0.9610052
   5012.500      0.7410311
   5015.000      0.6299611
   5017.500      0.5584774
   5020.000      0.5294358
   5022.500      0.4907339
   5025.000      0.4938321
   5027.500      0.4936913
   5030.000      0.4790709
   5032.500      0.4681887
   5035.000      0.4670247
   5037.500      0.4659204
   5040.000      0.4591068
   5042.500      0.4439468
   5045.000      0.4586828
   5047.500      0.4593129
   5050.000      0.4533339
   5052.500      0.4524079
   5055.000      0.4539390
   5057.500      0.4559014
   5060.000      0.4531795
   5062.500      0.4496138
   5065.000      0.4449604
   5067.500      0.4431690
   5070.000      0.4412335
   5072.500      0.4312612
   5075.000      0.4426957
   5077.500      0.4233819
   5080.000      0.4216886
   5082.500      0.4179056
   5085.000      0.4104217
   5087.500      0.4228774
   5090.000      0.4306130
   5092.500      0.4358003
   5095.000      0.4273724
   5097.500      0.4194395
   5100.000      0.4345811
   5102.500      0.4197943
   5105.000      0.4111667
   5107.500      0.4232178
   5110.000      0.4150296
   5112.500      0.4181325
   5115.000      0.4087617
   5117.500      0.4196552
   5120.000      0.4281243
   5122.500      0.4091482
   5125.000      0.4171648
   5127.500      0.4183863
   5130.000      0.4021892
   5132.500      0.4180571
   5135.000      0.4133274
   5137.500      0.4194030
   5140.000      0.4098251
   5142.500      0.4217543
   5145.000      0.4228588
   5147.500      0.4386605
   5150.000      0.4272220
   5152.500      0.4230731
   5155.000      0.4468902
   5157.500      0.4501802
   5160.000      0.4571702
   5162.500      0.4433634
   5165.000      0.4522279
   5167.500      0.4224356
   5170.000      0.4350307
   5172.500      0.4404258
   5175.000      0.4509423
   5177.500      0.4697071
   5180.000      0.4294942
   5182.500      0.4306627
   5185.000      0.4207490
   5187.500      0.4258462
   5190.000      0.4233310
   5192.500      0.4241482
   5195.000      0.4479358
   5197.500      0.4580261
   5200.000      0.4371899
   5202.500      0.4290626
   5205.000      0.4141945
   5207.500      0.4099233
   5210.000      0.4240431
   5212.500      0.4023371
   5215.000      0.4242749
   5217.500      0.4359564
   5220.000      0.4281532
   5222.500      0.4409607
   5225.000      0.4235099
   5227.500      0.4118921
   5230.000      0.4297710
   5232.500      0.4241295
   5235.000      0.4277889
   5237.500      0.4122425
   5240.000      0.4267449
   5242.500      0.4382697
   5245.000      0.4080960
   5247.500      0.4120946
   5250.000      0.4182499
   5252.500      0.4242987
   5255.000      0.4325751
   5257.500      0.4262699
   5260.000      0.4051619
   5262.500      0.4339411
   5265.000      0.4214848
   5267.500      0.4162421
   5270.000      0.4242223
   5272.500      0.4245186
   5275.000      0.4183851
   5277.500      0.4274452
   5280.000      0.4171619
   5282.500      0.4366558
   5285.000      0.4210071
   5287.500      0.4273840
   5290.000      0.4169822
   5292.500      0.4405800
   5295.000      0.4349003
   5297.500      0.4422766
   5300.000      0.4148723
   5302.500      0.4040145
   5305.000      0.4038869
   5307.500      0.4402244
   5310.000      0.4487545
   5312.500      0.4260311
   5315.000      0.4140189
   5317.500      0.4268098
   5320.000      0.4382122
   5322.500      0.4209281
   5325.000      0.4251809
   5327.500      0.4162005
   5330.000      0.4100863
   5332.500      0.4096989
   5335.000      0.4053672
   5337.500      0.3924710
   5340.000      0.4000401
   5342.500      0.4052020
   5345.000      0.4148026
   5347.500      0.3899182
   5350.000      0.3893556
   5352.500      0.3888730
   5355.000      0.3918626
   5357.500      0.4012474
   5360.000      0.3994606
   5362.500      0.3706988
   5365.000      0.3906183
   5367.500      0.4104914
   5370.000      0.3692541
   5372.500      0.3671752
   5375.000      0.3799859
   5377.500      0.3842247
   5380.000      0.3875267
   5382.500      0.3993471
   5385.000      0.3869374
   5387.500      0.3807854
   5390.000      0.3742328
   5392.500      0.3793930
   5395.000      0.3769913
   5397.500      0.3704491
   5400.000      0.3734576
   5402.500      0.3715426
   5405.000      0.3656375
   5407.500      0.3610468
   5410.000      0.3728732
   5412.500      0.3838050
   5415.000      0.3811801
   5417.500      0.3740343
   5420.000      0.3787451
   5422.500      0.3733126
   5425.000      0.3682273
   5427.500      0.3627562
   5430.000      0.3611882
   5432.500      0.3616066
   5435.000      0.3340834
   5437.500      0.3786733
   5440.000      0.3640423
   5442.500      0.3854564
   5445.000      0.3424271
   5447.500      0.3774407
   5450.000      0.3798940
   5452.500      0.3753991
   5455.000      0.3557556
   5457.500      0.3557635
   5460.000      0.3554837
   5462.500      0.3794448
   5465.000      0.3331401
   5467.500      0.3201011
   5470.000      0.3492329
   5472.500      0.3344846
   5475.000      0.3379236
   5477.500      0.3613821
   5480.000      0.3396721
   5482.500      0.3511316
   5485.000      0.3604536
   5487.500      0.3592018
   5490.000      0.3613351
   5492.500      0.3666667
   5495.000      0.3735574
   5497.500      0.3440786
   5500.000      0.3610815
   5502.500      0.3709576
   5505.000      0.3608013
   5507.500      0.3515250
   5510.000      0.3381916
   5512.500      0.3547622
   5515.000      0.3416410
   5517.500      0.3460334
   5520.000      0.3585348
   5522.500      0.3641009
   5525.000      0.3695428
   5527.500      0.3663728
   5530.000      0.3610733
   5532.500      0.3649575
   5535.000      0.3488373
   5537.500      0.3762119
   5540.000      0.3668607
   5542.500      0.3627751
   5545.000      0.3745062
   5547.500      0.3699478
   5550.000      0.3522414
   5552.500      0.3563467
   5555.000      0.3595140
   5557.500      0.3418802
   5560.000      0.3351063
   5562.500      0.3348805
   5565.000      0.3371899
   5567.500      0.3526459
   5570.000      0.3472368
   5572.500      0.3600735
   5575.000      0.3398179
   5577.500      0.3657740
   5580.000      0.3809385
   5582.500      0.3506978
   5585.000      0.3610141
   5587.500      0.3541619
   5590.000      0.3471443
   5592.500      0.3683234
   5595.000      0.3930453
   5597.500      0.3945420
   5600.000      0.3883820
   5602.500      0.3585753
   5605.000      0.3684936
   5607.500      0.3722836
   5610.000      0.3600863
   5612.500      0.3524688
   5615.000      0.3437251
   5617.500      0.3360110
   5620.000      0.3436496
   5622.500      0.3406068
   5625.000      0.3280573
   5627.500      0.3410983
   5630.000      0.3474388
   5632.500      0.3552056
   5635.000      0.3337078
   5637.500      0.3330389
   5640.000      0.3413814
   5642.500      0.3065807
   5645.000      0.3133787
   5647.500      0.3234251
   5650.000      0.3372545
   5652.500      0.3481156
   5655.000      0.3206058
   5657.500      0.3387754
   5660.000      0.3365108
   5662.500      0.3262355
   5665.000      0.3355614
   5667.500      0.3307747
   5670.000      0.3128727
   5672.500      0.3741322
   5675.000      0.3418037
   5677.500      0.3339366
   5680.000      0.3411936
   5682.500      0.3301614
   5685.000      0.3238801
   5687.500      0.3089114
   5690.000      0.3251224
   5692.500      0.3334594
   5695.000      0.3160297
   5697.500      0.3050449
   5700.000      0.3255857
   5702.500      0.3243835
   5705.000      0.3141038
   5707.500      0.3475768
   5710.000      0.3216469
   5712.500      0.3206785
   5715.000      0.3115178
   5717.500      0.3024973
   5720.000      0.3192838
   5722.500      0.3151710
   5725.000      0.3346625
   5727.500      0.3081032
   5730.000      0.3283550
   5732.500      0.3145463
   5735.000      0.2863995
   5737.500      0.2813670
   5740.000      0.2882670
   5742.500      0.3028275
   5745.000      0.3073677
   5747.500      0.3114008
   5750.000      0.3264445
   5752.500      0.3210532
   5755.000      0.3234562
   5757.500      0.3158132
   5760.000      0.2876413
   5762.500      0.3013149
   5765.000      0.2960640
   5767.500      0.3290194
   5770.000      0.3211863
   5772.500      0.3157958
   5775.000      0.3035644
   5777.500      0.3256405
   5780.000      0.3265836
   5782.500      0.3063956
   5785.000      0.3100358
   5787.500      0.3082533
   5790.000      0.3098151
   5792.500      0.2958290
   5795.000      0.3068120
   5797.500      0.3206574
   5800.000      0.3316802
   5802.500      0.2998928
   5805.000      0.3412807
   5807.500      0.3492017
   5810.000      0.3256185
   5812.500      0.3095028
   5815.000      0.3053583
   5817.500      0.2913647
   5820.000      0.2940129
   5822.500      0.3073011
   5825.000      0.3150704
   5827.500      0.3028756
   5830.000      0.3018502
   5832.500      0.2980222
   5835.000      0.2793640
   5837.500      0.3133356
   5840.000      0.3472826
   5842.500      0.3229029
   5845.000      0.3311459
   5847.500      0.3306438
   5850.000      0.3397903
   5852.500      0.3157802
   5855.000      0.3285187
   5857.500      0.3530985
   5860.000      0.2917599
   5862.500      0.3214146
   5865.000      0.3290957
   5867.500      0.3501981
   5870.000      0.3582788
   5872.500      0.3460923
   5875.000      0.3610320
   5877.500      0.3495052
   5880.000      0.3123071
   5882.500      0.3003111
   5885.000      0.3447548
   5887.500      0.3178361
   5890.000      0.3021829
   5892.500      0.3356572
   5895.000      0.3273812
   5897.500      0.2948207
   5900.000      0.3001542
   5902.500      0.3204592
   5905.000      0.2983283
   5907.500      0.3078009
   5910.000      0.3244157
   5912.500      0.3266953
   5915.000      0.3234375
   5917.500      0.2972360
   5920.000      0.3000577
   5922.500      0.2889572
   5925.000      0.2839242
   5927.500      0.3088274
   5930.000      0.3086301
   5932.500      0.3225763
   5935.000      0.3165816
   5937.500      0.3230547
   5940.000      0.3151848
   5942.500      0.3083970
   5945.000      0.2916063
   5947.500      0.2667898
   5950.000      0.2990244
   5952.500      0.2881646
   5955.000      0.2871726
   5957.500      0.2930904
   5960.000      0.2715385
   5962.500      0.2669921
   5965.000      0.3002838
   5967.500      0.2824718
   5970.000      0.2925627
   5972.500      0.3018669
   5975.000      0.2813619
   5977.500      0.2802376
   5980.000      0.2966747
   5982.500      0.2928584
   5985.000      0.2483345
   5987.500      0.3023416
   5990.000      0.3031950
   5992.500      0.3253919
   5995.000      0.3162579
   5997.500      0.2965013
   6000.000      0.2630137

